Black Body Radiation Experiment Wed, Mar 04, 2020 10:24 AM
Sensor Position (Degrees)	Light Intensity (Volts)
0.00000	-0.00616
0.00000	-0.00858
0.00000	-0.00793
0.00000	-0.01148
0.00000	-0.00954
0.00000	-0.00987
0.00000	-0.01341
0.00000	-0.01276
0.00000	-0.00890
0.00000	-0.00729
0.00000	-0.01035
0.00000	-0.00729
0.00000	-0.01051
0.00000	-0.01019
0.00000	-0.00729
0.00000	-0.00745
0.00000	-0.00649
0.00000	-0.00922
0.00000	-0.00665
0.00000	-0.00793
0.00000	-0.01244
0.00000	-0.01453
0.00000	-0.00616
0.00000	-0.00842
0.00000	-0.00681
0.00000	-0.01067
0.00000	-0.00632
0.00000	-0.00407
0.00000	-0.00858
0.00000	-0.00713
0.00000	-0.00826
0.00000	-0.00858
0.00000	-0.00552
0.00000	-0.00439
0.00000	-0.00600
0.00000	-0.00858
0.00000	-0.00600
0.00000	-0.00793
0.01035	-0.01099
0.01035	-0.00632
0.01035	-0.00375
0.01035	-0.00842
0.00000	-0.00890
0.00000	-0.00826
0.00000	-0.00681
0.00000	-0.00568
0.00000	-0.00793
0.00000	-0.00954
0.00000	-0.00632
0.00000	-0.00375
0.00000	-0.00810
0.00000	-0.00906
0.01035	-0.01003
0.01035	-0.01051
0.01035	-0.00729
0.01035	-0.01099
0.01035	-0.00874
0.01035	-0.00278
0.01035	-0.00890
0.01035	-0.01212
0.01035	-0.01003
0.01035	-0.00568
0.01035	-0.00504
0.01035	-0.01067
0.01035	-0.00890
0.01035	-0.00681
0.01035	-0.00761
0.01035	-0.00745
0.01035	-0.00874
0.01035	-0.00488
0.01035	-0.00439
0.01035	-0.01437
0.01035	-0.00810
0.01035	-0.00584
0.01035	-0.00439
0.01035	-0.00697
0.01035	-0.00600
0.01035	-0.00568
0.01035	-0.00777
0.01035	-0.01003
0.01035	-0.00777
0.01035	-0.00327
0.01035	-0.00681
0.01035	-0.01148
0.01035	-0.00423
0.01035	-0.00713
0.01035	-0.00745
0.01035	-0.01115
0.01035	-0.00488
0.01035	-0.00584
0.02070	-0.00665
0.02070	-0.00842
0.02070	-0.00568
0.02070	-0.00439
0.02070	-0.00343
0.02070	-0.00472
0.02070	-0.01196
0.03104	-0.00182
0.03104	-0.00665
0.03104	-0.00262
0.03104	-0.00745
0.03104	-0.01067
0.03104	-0.00874
0.03104	-0.00407
0.03104	-0.00407
0.03104	-0.00536
0.04139	-0.00439
0.04139	-0.00568
0.04139	-0.00713
0.05174	-0.00536
0.05174	-0.00552
0.06209	-0.00472
0.06209	-0.00826
0.06209	-0.00922
0.06209	-0.00729
0.06209	-0.00343
0.06209	-0.00552
0.06209	-0.00423
0.06209	-0.00536
0.06209	-0.00294
0.07244	-0.00874
0.07244	-0.00150
0.07244	-0.00439
0.07244	-0.00423
0.08279	-0.00311
0.08279	-0.00600
0.10348	-0.00600
0.12418	-0.00745
0.42428	-0.00777
1.17969	-0.00311
2.15242	-0.00391
2.91819	-0.00262
3.50804	-0.00504
3.89092	-0.00278
4.12893	-0.00423
4.29450	-0.00375
4.48077	-0.00150
4.73947	-0.00826
4.95679	-0.00439
5.12236	-0.01115
5.24654	-0.00391
5.32932	-0.00826
5.39141	-0.00214
5.46385	-0.00568
5.52594	-0.00455
5.60872	-0.00568
5.68116	-0.00890
5.77429	-0.00584
5.88812	-0.00568
6.05369	-0.00520
6.19857	-0.00681
6.32275	-0.00810
6.46762	-0.00520
6.65389	-0.00858
6.85051	-0.00214
7.05747	-0.00552
7.27478	-0.00214
7.43000	-0.00311
7.57488	-0.00472
7.70941	0.00060
7.84393	0.00108
8.01985	-0.00246
8.21647	-0.00713
8.35099	-0.00697
8.48552	-0.00359
8.59935	-0.00407
8.71318	-0.00343
8.82701	-0.00085
8.94084	-0.00552
9.06502	-0.00085
9.19955	-0.00488
9.31338	0.00124
9.42721	-0.00391
9.53069	-0.00101
9.62382	-0.00166
9.73765	-0.00745
9.88253	0.00108
10.02740	-0.00568
10.16193	-0.00343
10.29646	-0.00230
10.41029	-0.00311
10.52412	-0.00262
10.62760	-0.00391
10.73108	0.00237
10.82421	-0.00053
10.92770	0.00269
11.00013	0.00349
11.07257	-0.00053
11.16570	-0.00053
11.24849	-0.00037
11.33127	-0.00472
11.44510	-0.00729
11.57963	-0.00150
11.71416	0.00365
11.85903	0.00205
11.97286	-0.00568
12.10739	-0.00198
12.24192	-0.00117
12.36609	-0.00150
12.45923	-0.00182
12.58341	-0.00150
12.70758	0.00044
12.84211	0.00092
12.97664	0.00285
13.10082	0.00253
13.22499	0.00092
13.33882	0.00060
13.44231	-0.00037
13.56649	-0.00069
13.69066	-0.00101
13.84589	0.00076
14.00111	0.00092
14.14598	0.00317
14.29086	0.00784
14.41504	0.00655
14.61165	0.00720
14.77722	0.00543
14.92210	0.00543
15.07732	0.00140
15.18080	0.00108
15.28429	0.00639
15.39812	0.00591
15.54299	0.01042
15.70856	0.01058
15.96727	0.00993
16.14319	0.01380
16.32945	0.01621
16.58816	0.02007
16.86756	0.02426
17.14696	0.03697
17.44706	0.05114
17.73681	0.06305
18.04725	0.08494
18.38874	0.11021
18.65780	0.14385
18.89581	0.16928
19.14416	0.19375
19.35113	0.21419
19.58914	0.22658
19.87888	0.23817
20.15829	0.23560
20.41699	0.23302
20.60326	0.22513
20.79987	0.22014
21.00684	0.20727
21.22415	0.19455
21.45181	0.17990
21.64843	0.15995
21.85539	0.15061
22.01061	0.14047
22.20723	0.12631
22.40384	0.11729
22.61081	0.10779
22.80742	0.09186
23.02474	0.08365
23.22135	0.07480
23.45936	0.06176
23.67667	0.05146
23.90433	0.04872
24.12165	0.04164
24.32861	0.03971
24.58731	0.03166
24.83567	0.02909
25.05298	0.02168
25.22890	0.02394
25.41517	0.01718
25.59109	0.01734
25.80840	0.01202
25.99467	0.00864
26.20163	0.00703
26.39825	0.00945
26.59486	0.00881
26.82252	0.00655
27.02949	0.00446
27.23645	0.00543
27.44342	0.00430
27.67108	0.00559
27.88839	0.00768
28.10570	0.00365
28.36441	0.00446
28.63346	0.00285
28.97495	0.00301
29.33714	-0.00214
29.73037	-0.00246
30.07186	-0.00472